# Wavelength     Net Transmission of Flats + Window + 9 lenses including Absorption  (1=100%)
      800.000    0.0875000
      800.500    0.0913000
      801.000    0.0954000
      801.500    0.0995000
      802.000     0.103900
      802.500     0.108200
      803.000     0.112700
      803.500     0.117400
      804.000     0.122200
      804.500     0.126900
      805.000     0.131900
      805.500     0.137000
      806.000     0.142200
      806.500     0.147300
      807.000     0.152500
      807.500     0.157800
      808.000     0.163300
      808.500     0.168000
      809.000     0.172800
      809.500     0.177700
      810.000     0.182700
      810.500     0.187100
      811.000     0.191500
      811.500     0.196000
      812.000     0.200700
      812.500     0.206100
      813.000     0.211600
      813.500     0.217200
      814.000     0.223000
      814.500     0.228600
      815.000     0.234300
      815.500     0.240200
      816.000     0.246200
      816.500     0.251300
      817.000     0.256400
      817.500     0.261700
      818.000     0.267100
      818.500     0.272500
      819.000     0.278000
      819.500     0.283700
      820.000     0.289400
      820.500     0.292100
      821.000     0.294700
      821.500     0.297400
      822.000     0.300200
      822.500     0.305500
      823.000     0.310900
      823.500     0.316400
      824.000     0.322000
      824.500     0.325800
      825.000     0.329700
      825.500     0.333600
      826.000     0.337500
      826.500     0.340400
      827.000     0.343400
      827.500     0.346400
      828.000     0.349400
      828.500     0.351000
      829.000     0.352600
      829.500     0.354200
      830.000     0.355800
      830.500     0.359200
      831.000     0.362700
      831.500     0.366100
      832.000     0.369600
      832.500     0.371700
      833.000     0.373900
      833.500     0.376100
      834.000     0.378300
      834.500     0.381700
      835.000     0.385200
      835.500     0.388800
      836.000     0.392300
      836.500     0.393000
      837.000     0.393700
      837.500     0.394400
      838.000     0.395100
      838.500     0.394600
      839.000     0.394200
      839.500     0.393700
      840.000     0.393200
      840.500     0.394100
      841.000     0.395100
      841.500     0.396000
      842.000     0.397000
      842.500     0.396200
      843.000     0.395500
      843.500     0.394700
      844.000     0.394000
      844.500     0.386800
      845.000     0.379800
      845.500     0.372900
      846.000     0.366100
      846.500     0.349300
      847.000     0.333200
      847.500     0.317800
      848.000     0.303000
      848.500     0.330800
      849.000     0.360700
      849.500     0.393100
      850.000     0.427900
      850.500     0.427700
      851.000     0.427600
      851.500     0.427400
      852.000     0.427200
      852.500     0.426800
      853.000     0.426300
      853.500     0.425900
      854.000     0.425400
      854.500     0.425200
      855.000     0.424900
      855.500     0.424700
      856.000     0.424400
      856.500     0.424100
      857.000     0.423700
      857.500     0.423300
      858.000     0.422900
      858.500     0.422900
      859.000     0.422900
      859.500     0.422800
      860.000     0.422800
      860.500     0.422300
      861.000     0.421800
      861.500     0.421200
      862.000     0.420700
      862.500     0.419900
      863.000     0.419000
      863.500     0.418200
      864.000     0.417400
      864.500     0.417300
      865.000     0.417300
      865.500     0.417300
      866.000     0.417200
      866.500     0.417200
      867.000     0.417100
      867.500     0.417000
      868.000     0.416900
      868.500     0.416800
      869.000     0.416600
      869.500     0.416400
      870.000     0.416300
      870.500     0.415900
      871.000     0.415600
      871.500     0.415300
      872.000     0.415000
      872.500     0.415600
      873.000     0.416200
      873.500     0.416800
      874.000     0.417400
      874.500     0.417300
      875.000     0.417200
      875.500     0.417100
      876.000     0.417000
      876.500     0.417100
      877.000     0.417200
      877.500     0.417400
      878.000     0.417500
      878.500     0.417800
      879.000     0.418100
      879.500     0.418500
      880.000     0.418800
      880.500     0.418900
      881.000     0.419100
      881.500     0.419300
      882.000     0.419400
      882.500     0.420500
      883.000     0.421500
      883.500     0.422500
      884.000     0.423600
      884.500     0.424300
      885.000     0.424900
      885.500     0.425600
      886.000     0.426300
      886.500     0.426400
      887.000     0.426500
      887.500     0.426600
      888.000     0.426700
      888.500     0.426900
      889.000     0.427000
      889.500     0.427100
      890.000     0.427200
      890.500     0.427800
      891.000     0.428300
      891.500     0.428800
      892.000     0.429300
      892.500     0.430200
      893.000     0.431200
      893.500     0.432100
      894.000     0.433000
      894.500     0.433700
      895.000     0.434400
      895.500     0.435200
      896.000     0.435900
      896.500     0.436600
      897.000     0.437400
      897.500     0.438100
      898.000     0.438800
      898.500     0.439600
      899.000     0.440400
      899.500     0.441200
      900.000     0.442200
      900.500     0.443800
      901.000     0.445400
      901.500     0.447100
      902.000     0.448700
      902.500     0.449500
      903.000     0.450200
      903.500     0.451000
      904.000     0.451700
      904.500     0.452200
      905.000     0.452800
      905.500     0.453400
      906.000     0.454000
      906.500     0.455000
      907.000     0.456000
      907.500     0.457000
      908.000     0.458100
      908.500     0.459400
      909.000     0.460700
      909.500     0.461900
      910.000     0.463200
      910.500     0.464400
      911.000     0.465600
      911.500     0.466900
      912.000     0.468100
      912.500     0.469500
      913.000     0.470900
      913.500     0.472200
      914.000     0.473500
      914.500     0.474200
      915.000     0.474800
      915.500     0.475500
      916.000     0.476100
      916.500     0.477600
      917.000     0.479000
      917.500     0.480500
      918.000     0.482000
      918.500     0.482900
      919.000     0.483800
      919.500     0.484700
      920.000     0.485600
      920.500     0.486400
      921.000     0.487300
      921.500     0.488200
      922.000     0.489100
      922.500     0.490400
      923.000     0.491700
      923.500     0.492900
      924.000     0.494200
      924.500     0.495300
      925.000     0.496400
      925.500     0.497700
      926.000     0.499000
      926.500     0.501100
      927.000     0.503100
      927.500     0.505200
      928.000     0.507300
      928.500     0.509000
      929.000     0.510700
      929.500     0.512300
      930.000     0.513900
      930.500     0.514600
      931.000     0.515300
      931.500     0.516100
      932.000     0.516900
      932.500     0.517600
      933.000     0.518400
      933.500     0.519000
      934.000     0.519700
      934.500     0.520900
      935.000     0.522200
      935.500     0.523500
      936.000     0.524900
      936.500     0.527100
      937.000     0.529400
      937.500     0.531600
      938.000     0.533800
      938.500     0.534900
      939.000     0.536000
      939.500     0.537100
      940.000     0.538200
      940.500     0.538600
      941.000     0.538900
      941.500     0.539300
      942.000     0.539600
      942.500     0.540600
      943.000     0.541700
      943.500     0.542500
      944.000     0.543400
      944.500     0.543900
      945.000     0.544300
      945.500     0.544900
      946.000     0.545400
      946.500     0.547200
      947.000     0.549000
      947.500     0.550800
      948.000     0.552500
      948.500     0.554900
      949.000     0.557300
      949.500     0.559700
      950.000     0.562100
      950.500     0.562300
      951.000     0.562600
      951.500     0.562700
      952.000     0.562800
      952.500     0.564500
      953.000     0.566200
      953.500     0.567900
      954.000     0.569600
      954.500     0.570400
      955.000     0.571200
      955.500     0.572000
      956.000     0.572900
      956.500     0.574400
      957.000     0.575900
      957.500     0.577400
      958.000     0.578900
      958.500     0.579800
      959.000     0.580800
      959.500     0.581800
      960.000     0.582800
      960.500     0.583800
      961.000     0.584800
      961.500     0.585800
      962.000     0.586800
      962.500     0.588800
      963.000     0.590800
      963.500     0.592700
      964.000     0.594600
      964.500     0.595100
      965.000     0.595700
      965.500     0.596300
      966.000     0.596800
      966.500     0.597700
      967.000     0.598600
      967.500     0.599400
      968.000     0.600300
      968.500     0.600700
      969.000     0.601100
      969.500     0.601500
      970.000     0.602000
      970.500     0.602500
      971.000     0.603000
      971.500     0.603500
      972.000     0.604000
      972.500     0.605100
      973.000     0.606200
      973.500     0.607400
      974.000     0.608500
      974.500     0.609600
      975.000     0.610700
      975.500     0.611900
      976.000     0.613100
      976.500     0.613600
      977.000     0.614100
      977.500     0.614400
      978.000     0.614800
      978.500     0.615200
      979.000     0.615600
      979.500     0.616100
      980.000     0.616600
      980.500     0.616500
      981.000     0.616500
      981.500     0.616400
      982.000     0.616400
      982.500     0.617000
      983.000     0.617600
      983.500     0.618100
      984.000     0.618700
      984.500     0.619800
      985.000     0.621000
      985.500     0.622100
      986.000     0.623300
      986.500     0.624400
      987.000     0.625500
      987.500     0.626500
      988.000     0.627500
      988.500     0.629200
      989.000     0.630800
      989.500     0.632500
      990.000     0.634100
      990.500     0.634100
      991.000     0.634000
      991.500     0.633900
      992.000     0.633900
      992.500     0.633400
      993.000     0.632900
      993.500     0.632400
      994.000     0.631900
      994.500     0.633100
      995.000     0.634300
      995.500     0.635500
      996.000     0.636700
      996.500     0.638800
      997.000     0.640900
      997.500     0.642900
      998.000     0.644900
      998.500     0.645600
      999.000     0.646300
      999.500     0.647000
      1000.00     0.647800
      1000.50     0.647300
      1001.00     0.646800
      1001.50     0.646300
      1002.00     0.645800
      1002.50     0.645000
      1003.00     0.644200
      1003.50     0.643500
      1004.00     0.642700
      1004.50     0.642600
      1005.00     0.642600
      1005.50     0.642600
      1006.00     0.642500
      1006.50     0.642700
      1007.00     0.642900
      1007.50     0.643000
      1008.00     0.643100
      1008.50     0.643800
      1009.00     0.644500
      1009.50     0.645300
      1010.00     0.646100
      1010.50     0.646100
      1011.00     0.646100
      1011.50     0.646000
      1012.00     0.645900
      1012.50     0.645700
      1013.00     0.645600
      1013.50     0.645500
      1014.00     0.645400
      1014.50     0.644800
      1015.00     0.644100
      1015.50     0.643500
      1016.00     0.642800
      1016.50     0.643100
      1017.00     0.643300
      1017.50     0.643600
      1018.00     0.643900
      1018.50     0.645100
      1019.00     0.646300
      1019.50     0.647500
      1020.00     0.648800
      1020.50     0.649300
      1021.00     0.649800
      1021.50     0.650300
      1022.00     0.650800
      1022.50     0.652000
      1023.00     0.653100
      1023.50     0.654300
      1024.00     0.655600
      1024.50     0.655800
      1025.00     0.656000
      1025.50     0.656200
      1026.00     0.656400
      1026.50     0.656400
      1027.00     0.656400
      1027.50     0.656500
      1028.00     0.656500
      1028.50     0.657200
      1029.00     0.657800
      1029.50     0.658400
      1030.00     0.659000
      1030.50     0.659200
      1031.00     0.659400
      1031.50     0.659600
      1032.00     0.659800
      1032.50     0.660400
      1033.00     0.660900
      1033.50     0.661500
      1034.00     0.662000
      1034.50     0.662800
      1035.00     0.663600
      1035.50     0.664300
      1036.00     0.665000
      1036.50     0.664800
      1037.00     0.664500
      1037.50     0.664300
      1038.00     0.664100
      1038.50     0.663400
      1039.00     0.662800
      1039.50     0.662100
      1040.00     0.661400
      1040.50     0.661700
      1041.00     0.661900
      1041.50     0.662200
      1042.00     0.662400
      1042.50     0.662400
      1043.00     0.662300
      1043.50     0.662300
      1044.00     0.662200
      1044.50     0.661600
      1045.00     0.660900
      1045.50     0.660300
      1046.00     0.659600
      1046.50     0.659200
      1047.00     0.658700
      1047.50     0.658300
      1048.00     0.658000
      1048.50     0.659700
      1049.00     0.661400
      1049.50     0.663200
      1050.00     0.664900
      1050.50     0.665000
      1051.00     0.665200
      1051.50     0.665400
      1052.00     0.665600
      1052.50     0.665500
      1053.00     0.665400
      1053.50     0.665300
      1054.00     0.665200
      1054.50     0.665900
      1055.00     0.666600
      1055.50     0.667300
      1056.00     0.668000
      1056.50     0.669000
      1057.00     0.669900
      1057.50     0.670900
      1058.00     0.671800
      1058.50     0.672400
      1059.00     0.672900
      1059.50     0.673400
      1060.00     0.673900
      1060.50     0.674100
      1061.00     0.674200
      1061.50     0.674500
      1062.00     0.674700
      1062.50     0.675300
      1063.00     0.675800
      1063.50     0.676300
      1064.00     0.676900
      1064.50     0.676600
      1065.00     0.676300
      1065.50     0.676000
      1066.00     0.675700
      1066.50     0.674800
      1067.00     0.673900
      1067.50     0.672900
      1068.00     0.672000
      1068.50     0.673200
      1069.00     0.674400
      1069.50     0.675600
      1070.00     0.676800
      1070.50     0.676200
      1071.00     0.675500
      1071.50     0.674900
      1072.00     0.674200
      1072.50     0.673600
      1073.00     0.672900
      1073.50     0.672200
      1074.00     0.671500
      1074.50     0.672400
      1075.00     0.673300
      1075.50     0.674200
      1076.00     0.675100
      1076.50     0.675500
      1077.00     0.675900
      1077.50     0.676200
      1078.00     0.676600
      1078.50     0.676600
      1079.00     0.676600
      1079.50     0.676700
      1080.00     0.676700
      1080.50     0.676800
      1081.00     0.676800
      1081.50     0.676900
      1082.00     0.677000
      1082.50     0.677200
      1083.00     0.677400
      1083.50     0.677500
      1084.00     0.677700
      1084.50     0.679900
      1085.00     0.682200
      1085.50     0.684500
      1086.00     0.686700
      1086.50     0.687100
      1087.00     0.687500
      1087.50     0.687900
      1088.00     0.688200
      1088.50     0.688200
      1089.00     0.688200
      1089.50     0.688200
      1090.00     0.688100
      1090.50     0.688000
      1091.00     0.687900
      1091.50     0.687800
      1092.00     0.687800
      1092.50     0.687400
      1093.00     0.687000
      1093.50     0.686500
      1094.00     0.686100
      1094.50     0.683700
      1095.00     0.681300
      1095.50     0.678900
      1096.00     0.676500
      1096.50     0.678200
      1097.00     0.679900
      1097.50     0.681600
      1098.00     0.683300
      1098.50     0.685200
      1099.00     0.687100
      1099.50     0.689100
      1100.00     0.691200
      1100.50     0.689500
      1101.00     0.687800
      1101.50     0.686000
      1102.00     0.684300
      1102.50     0.684100
      1103.00     0.683900
      1103.50     0.683700
      1104.00     0.683500
      1104.50     0.684400
      1105.00     0.685300
      1105.50     0.686200
      1106.00     0.687200
      1106.50     0.688800
      1107.00     0.690500
      1107.50     0.692100
      1108.00     0.693800
      1108.50     0.695100
      1109.00     0.696300
      1109.50     0.697600
      1110.00     0.698800
      1110.50     0.698600
      1111.00     0.698400
      1111.50     0.698300
      1112.00     0.698100
      1112.50     0.699700
      1113.00     0.701300
      1113.50     0.703000
      1114.00     0.704600
      1114.50     0.704700
      1115.00     0.704700
      1115.50     0.704700
      1116.00     0.704700
      1116.50     0.702100
      1117.00     0.699400
      1117.50     0.696700
      1118.00     0.694000
      1118.50     0.691400
      1119.00     0.688700
      1119.50     0.686000
      1120.00     0.683400
      1120.50     0.684600
      1121.00     0.685700
      1121.50     0.686800
      1122.00     0.687900
      1122.50     0.688000
      1123.00     0.688000
      1123.50     0.688100
      1124.00     0.688200
      1124.50     0.687600
      1125.00     0.687000
      1125.50     0.686400
      1126.00     0.685800
      1126.50     0.687300
      1127.00     0.688800
      1127.50     0.690200
      1128.00     0.691700
      1128.50     0.694000
      1129.00     0.696400
      1129.50     0.698700
      1130.00     0.701100
      1130.50     0.702700
      1131.00     0.704400
      1131.50     0.706100
      1132.00     0.707900
      1132.50     0.707900
      1133.00     0.707900
      1133.50     0.707900
      1134.00     0.707900
      1134.50     0.708000
      1135.00     0.708100
      1135.50     0.708100
      1136.00     0.708100
      1136.50     0.708900
      1137.00     0.709700
      1137.50     0.710400
      1138.00     0.711200
      1138.50     0.711900
      1139.00     0.712600
      1139.50     0.713200
      1140.00     0.713800
      1140.50     0.712200
      1141.00     0.710600
      1141.50     0.709000
      1142.00     0.707500
      1142.50     0.707900
      1143.00     0.708400
      1143.50     0.708900
      1144.00     0.709400
      1144.50     0.711000
      1145.00     0.712600
      1145.50     0.714200
      1146.00     0.715800
      1146.50     0.715200
      1147.00     0.714500
      1147.50     0.713900
      1148.00     0.713200
      1148.50     0.712200
      1149.00     0.711200
      1149.50     0.710200
      1150.00     0.709100
      1150.50     0.709200
      1151.00     0.709300
      1151.50     0.709400
      1152.00     0.709400
      1152.50     0.709900
      1153.00     0.710300
      1153.50     0.710800
      1154.00     0.711200
      1154.50     0.711800
      1155.00     0.712500
      1155.50     0.713100
      1156.00     0.713800
      1156.50     0.713400
      1157.00     0.713000
      1157.50     0.712600
      1158.00     0.712200
      1158.50     0.711700
      1159.00     0.711100
      1159.50     0.710600
      1160.00     0.710000
      1160.50     0.710700
      1161.00     0.711500
      1161.50     0.712200
      1162.00     0.712900
      1162.50     0.712900
      1163.00     0.713000
      1163.50     0.713100
      1164.00     0.713100
      1164.50     0.713000
      1165.00     0.712800
      1165.50     0.712700
      1166.00     0.712600
      1166.50     0.713000
      1167.00     0.713400
      1167.50     0.713900
      1168.00     0.714300
